# Wilkinson Microwave Anisotropy Probe (WMAP) 7-year data release.
# WMAP 7-Year Combined TT Power Spectrum, version 4.0 (January 2010)
#
# References: - WMAP Explanatory Supplement: http://lambda.gsfc.nasa.gov/
#             - Larson, et.al. (2010)
#
# Column 1 = multipole moment l
# Column 2 = TT power spectrum, units = uK^2, =  l(l+1)/2pi * C_l.
#             This uses the maximum likelihood of the marginalized distribution 
#             at that l, for l up to and including 32.  
#             For l > 32, the Master estimate is used.
# Column 3 = 'Error' derived from diagonal terms of Fisher matrix, units = uK^2.
#             Included only as an estimate of their magnitude.  The
#             multipole moments are slightly coupled, so a correct
#             treatment of errors requires use of the entire Fisher matrix.
# Column 4 = portion of column3 error attributed to measurement errors,
#             in "2SN + NN" form, units = uK^2.
# Column 5 = portion of column3 error attributed to cosmic variance, 
#             assuming the best-fit LCDM model
#
           2       200.8669       928.2459         4.8058       928.2335
           3      1050.6551       727.6663         5.1563       727.6481
           4       694.2891       596.4357         5.4240       596.4110
           5      1516.6019       508.4064         5.6645       508.3749
           6       668.6091       447.3383         5.8999       447.2994
           7      1375.1285       403.5627         6.1381       403.5161
           8       615.1197       370.5298         6.3756       370.4750
           9       671.8557       346.0378         6.6240       345.9744
          10       741.5825       326.5010         6.8716       326.4286
          11       944.4397       311.0601         7.1236       310.9785
          12       773.9083       299.0179         7.3836       298.9267
          13       781.1546       289.2401         7.6467       289.1390
          14       816.6047       280.8271         7.9068       280.7158
          15      1049.7436       273.5508         8.1648       273.4289
          16       590.9440       267.4051         8.4241       267.2724
          17      1044.9716       262.5900         8.6911       262.4461
          18       664.1794       259.1547         8.9703       258.9994
          19       848.1386       256.4304         9.2535       256.2634
          20       730.0336       253.8091         9.5309       253.6301
          21       652.8780       251.3807         9.8050       251.1894
          22       534.6604       249.3392        10.0799       249.1354
          23       751.2205       247.6869        10.3575       247.4703
          24       792.3003       246.3688        10.6370       246.1390
          25       759.6284       245.2740        10.9173       245.0309
          26       867.1429       244.3228        11.1969       244.0661
          27      1087.9582       243.5838        11.4778       243.3132
          28      1239.0935       243.1169        11.7624       242.8322
          29      1131.2484       242.8235        12.0485       242.5244
          30       864.0617       242.6050        12.3341       242.2912
          31      1124.2874       242.4925        12.6206       242.1638
          32      1525.7716       242.5288        12.9091       242.1850
          33      1127.1169       242.6873        13.1993       242.3281
          34      1129.3990       242.9337        13.4904       242.5588
          35       822.1558       243.2641        13.7830       242.8733
          36      1110.3750       243.6814        14.0770       243.2745
          37      1276.2469       244.1876        14.3728       243.7643
          38      1378.3400       244.7816        14.6705       244.3416
          39      1391.8361       245.4503        14.9700       244.9933
          40      1883.9990       246.1786        15.2709       245.7045
          41      1347.5020       246.9549        15.5732       246.4634
          42      1523.6240       247.7774        15.8767       247.2682
          43      1576.5970       248.6470        16.1817       248.1199
          44      1408.3409       249.5645        16.4883       249.0192
          45      1226.1410       250.5310        16.7967       249.9673
          46      1179.0010       251.5466        17.1069       250.9642
          47      1574.0909       252.6088        17.4191       252.0075
          48      1002.3490       253.7148        17.7331       253.0943
          49      1671.6060       254.8617        18.0492       254.2218
          50      1495.0920       256.0468        18.3670       255.3872
          51      1224.8230       257.2680        18.6867       256.5884
          52      1662.5959       258.5242        19.0083       257.8244
          53      1139.1760       259.8149        19.3319       259.0947
          54      1162.6470       261.1399        19.6576       260.3989
          55      1609.9830       262.4985        19.9855       261.7366
          56      1623.2100       263.8904        20.3154       263.1073
          57      1453.1071       265.3153        20.6475       264.5106
          58      1843.5229       266.7725        20.9817       265.9461
          59      1362.4330       268.2619        21.3182       267.4135
          60      2074.6531       269.7832        21.6577       268.9125
          61      1473.7050       271.3358        21.9990       270.4425
          62      2230.1169       272.9188        22.3427       272.0027
          63      1792.7770       274.5311        22.6887       273.5919
          64      1367.8320       276.1718        23.0375       275.2093
          65      1741.2250       277.8399        23.3883       276.8538
          66      1761.8700       279.5348        23.7417       278.5247
          67      1495.6570       281.2560        24.0976       280.2218
          68      1990.7170       283.0038        24.4562       281.9451
          69      2366.1030       284.7780        24.8172       283.6946
          70      1668.2340       286.5787        25.1805       285.4703
          71      1900.5260       288.4058        25.5468       287.2722
          72      1462.3770       290.2586        25.9156       289.0994
          73      2679.3430       292.1361        26.2873       290.9510
          74      2166.9839       294.0376        26.6614       292.8264
          75      1984.4960       295.9622        27.0379       294.7245
          76      1631.8260       297.9092        27.4175       296.6449
          77      1921.9690       299.8785        27.7995       298.5872
          78      1643.2970       301.8699        28.1845       300.5513
          79      1816.8550       303.8835        28.5719       302.5373
          80      2456.1499       305.9192        28.9626       304.5451
          81      2091.1560       307.9768        29.3556       306.5746
          82      2994.0591       310.0564        29.7516       308.6257
          83      2110.7671       312.1581        30.1503       310.6986
          84      1699.5980       314.2818        30.5521       312.7932
          85      2469.9431       316.4275        30.9567       314.9095
          86      2496.2339       318.5951        31.3641       317.0475
          87      2319.6841       320.7837        31.7745       319.2061
          88      2020.2670       322.9923        32.1878       321.3844
          89      2836.8220       325.2197        32.6040       323.5812
          90      2251.3679       327.4648        33.0231       325.7955
          91      2530.1379       329.7270        33.4452       328.0264
          92      2506.7141       332.0053        33.8700       330.2731
          93      2989.7920       334.2990        34.2976       332.5350
          94      2423.8479       336.6077        34.7277       334.8115
          95      2230.7900       338.9305        35.1607       337.1018
          96      2276.3230       341.2671        35.5966       339.4055
          97      2735.1130       343.6166        36.0351       341.7219
          98      1906.3120       345.9786        36.4765       344.0504
          99      2766.9380       348.3525        36.9205       346.3905
         100      2972.0081       350.7377        37.3673       348.7415
         101      2572.8579       353.1338        37.8167       351.1031
         102      2807.6770       355.5401        38.2689       353.4745
         103      2644.4861       357.9562        38.7237       355.8554
         104      3145.8469       360.3815        39.1815       358.2452
         105      2291.2061       362.8155        39.6417       360.6433
         106      2860.4009       365.2579        40.1046       363.0495
         107      3257.1240       367.7079        40.5701       365.4630
         108      3931.6609       370.1653        41.0381       367.8834
         109      3098.1360       372.6296        41.5088       370.3104
         110      3349.7910       375.1003        41.9822       372.7435
         111      2983.4080       377.5768        42.4580       375.1821
         112      3258.4419       380.0584        42.9366       377.6252
         113      2264.7500       382.5439        43.4176       380.0720
         114      2096.9690       385.0325        43.9010       382.5215
         115      3115.2170       387.5230        44.3869       384.9726
         116      3831.3220       390.0148        44.8753       387.4245
         117      4352.6831       392.5067        45.3659       389.8762
         118      4036.5791       394.9978        45.8586       392.3268
         119      3521.2671       397.4875        46.3537       394.7754
         120      2842.1450       399.9746        46.8510       397.2212
         121      4382.4121       402.4583        47.3504       399.6632
         122      3486.0510       404.9380        47.8520       402.1007
         123      3898.8130       407.4125        48.3556       404.5326
         124      2855.1680       409.8812        48.8612       406.9585
         125      3360.8960       412.3432        49.3688       409.3771
         126      3618.4080       414.7978        49.8783       411.7880
         127      3488.6780       417.2441        50.3898       414.1902
         128      3673.6201       419.6813        50.9031       416.5829
         129      3294.9810       422.1088        51.4181       418.9654
         130      3879.8491       424.5257        51.9348       421.3369
         131      3503.8579       426.9311        52.4533       423.6966
         132      3228.2629       429.3243        52.9735       426.0436
         133      3753.5459       431.7040        53.4949       428.3768
         134      3764.7661       434.0695        54.0182       430.6953
         135      4210.9932       436.4197        54.5428       432.9979
         136      4827.8198       438.7535        55.0688       435.2838
         137      4046.6860       441.0700        55.5959       437.5521
         138      4310.5059       443.3683        56.1246       439.8016
         139      4560.9229       445.6474        56.6542       442.0315
         140      4117.2998       447.9064        57.1849       444.2409
         141      4334.5762       450.1445        57.7168       446.4289
         142      4492.0742       452.3606        58.2497       448.5945
         143      4399.6631       454.5539        58.7834       450.7369
         144      3912.4670       456.7237        59.3180       452.8553
         145      5190.5649       458.8687        59.8534       454.9484
         146      4000.5911       460.9884        60.3896       457.0158
         147      4315.4941       463.0819        60.9262       459.0565
         148      3870.3000       465.1483        61.4635       461.0696
         149      3836.4280       467.1868        62.0012       463.0544
         150      4559.8662       469.1965        62.5394       465.0099
         151      4167.7368       471.1767        63.0782       466.9354
         152      4490.1362       473.1269        63.6169       468.8304
         153      4927.7842       475.0466        64.1557       470.6945
         154      4073.5061       476.9354        64.6952       472.5272
         155      4922.2510       478.7929        65.2344       474.3281
         156      4154.7949       480.6186        65.7744       476.0966
         157      4643.2871       482.4120        66.3138       477.8324
         158      5527.2959       484.1727        66.8536       479.5350
         159      5000.0249       485.9003        67.3930       481.2040
         160      4964.1929       487.5944        67.9327       482.8389
         161      4601.1362       489.2545        68.4721       484.4394
         162      4712.2510       490.8802        69.0109       486.0050
         163      4532.3989       492.4711        69.5499       487.5352
         164      5248.5210       494.0268        70.0886       489.0297
         165      4796.2700       495.5468        70.6267       490.4880
         166      4902.0010       497.0309        71.1653       491.9098
         167      5183.6870       498.4784        71.7019       493.2946
         168      5253.5908       499.8890        72.2387       494.6419
         169      5102.0762       501.2626        72.7755       495.9515
         170      4368.1929       502.5983        73.3100       497.2230
         171      4648.1821       503.8959        73.8445       498.4557
         172      5112.1709       505.1552        74.3787       499.6495
         173      4926.5562       506.3757        74.9123       500.8038
         174      4900.0239       507.5568        75.4437       501.9184
         175      4952.7388       508.6985        75.9757       502.9929
         176      4883.4438       509.8001        76.5060       504.0268
         177      4992.5308       510.8610        77.0345       505.0194
         178      4920.9048       511.8809        77.5613       505.9707
         179      6112.9790       512.8597        78.0891       506.8799
         180      5298.0752       513.7965        78.6159       507.7463
         181      4320.3569       514.6905        79.1390       508.5699
         182      4941.3521       515.5416        79.6610       509.3499
         183      4840.7900       516.3495        80.1826       510.0858
         184      5557.7808       517.1133        80.7013       510.7773
         185      5835.4580       517.8329        81.2196       511.4237
         186      5137.7798       518.5074        81.7340       512.0248
         187      5262.7559       519.1367        82.2483       512.5799
         188      6216.9419       519.7205        82.7606       513.0887
         189      5983.1411       520.2576        83.2698       513.5505
         190      5887.0830       520.7482        83.7772       513.9650
         191      5580.3320       521.1919        84.2837       514.3318
         192      5986.4961       521.5878        84.7865       514.6505
         193      5743.1641       521.9356        85.2870       514.9203
         194      5348.7822       522.2348        85.7851       515.1409
         195      4880.2920       522.4852        86.2804       515.3120
         196      5572.3809       522.6864        86.7745       515.4331
         197      5480.8760       522.8374        87.2626       515.5038
         198      5914.2051       522.9384        87.7503       515.5235
         199      5424.5039       522.9888        88.2350       515.4919
         200      6011.5518       522.9879        88.7163       515.4084
         201      5186.3071       522.9357        89.1940       515.2729
         202      5781.3530       522.8322        89.6682       515.0855
         203      6001.8120       522.6781        90.1399       514.8467
         204      6299.3672       522.4737        90.6081       514.5570
         205      5725.5371       522.2195        91.0735       514.2167
         206      5672.2959       521.9154        91.5338       513.8261
         207      5425.3818       521.5627        91.9926       513.3858
         208      5385.2798       521.1606        92.4461       512.8958
         209      4549.1260       520.7105        92.8969       512.3569
         210      6090.9429       520.2123        93.3443       511.7692
         211      5920.4668       519.6668        93.7891       511.1333
         212      5700.6880       519.0737        94.2293       510.4492
         213      6129.6582       518.4337        94.6648       509.7176
         214      5658.4028       517.7473        95.0984       508.9386
         215      6806.2910       517.0149        95.5284       508.1129
         216      5889.7080       516.2362        95.9529       507.2404
         217      5355.5039       515.4123        96.3748       506.3218
         218      6248.1299       514.5433        96.7929       505.3572
         219      5302.5200       513.6291        97.2061       504.3469
         220      6278.2378       512.6707        97.6161       503.2915
         221      6270.6992       511.6682        98.0226       502.1911
         222      6213.1909       510.6216        98.4239       501.0461
         223      5750.1592       509.5318        98.8221       499.8568
         224      5358.1870       508.3987        99.2158       498.6235
         225      5385.7002       507.2225        99.6053       497.3464
         226      5946.6450       506.0039        99.9904       496.0260
         227      5970.5542       504.7428       100.3708       494.6625
         228      4909.8989       503.4400       100.7477       493.2562
         229      5100.9072       502.0954       101.1197       491.8074
         230      5604.5181       500.7094       101.4881       490.3163
         231      5898.0908       499.2821       101.8502       488.7833
         232      6509.1592       497.8142       102.2095       487.2086
         233      6141.3770       496.3056       102.5627       485.5926
         234      4899.2412       494.7570       102.9125       483.9354
         235      6095.3569       493.1681       103.2568       482.2373
         236      6215.4019       491.5397       103.5968       480.4987
         237      5020.4731       489.8717       103.9312       478.7198
         238      5939.4790       488.1646       104.2610       476.9007
         239      5762.4521       486.4184       104.5857       475.0418
         240      6125.0732       484.6338       104.9057       473.1434
         241      5682.4102       482.8106       105.2203       471.2057
         242      5369.3350       480.9491       105.5291       469.2288
         243      5648.5088       479.0500       105.8337       467.2131
         244      5169.0610       477.1131       106.1325       465.1589
         245      6414.5508       475.1387       106.4258       463.0662
         246      5710.8960       473.1270       106.7126       460.9355
         247      6073.4009       471.0786       106.9954       458.7668
         248      5672.9082       468.9934       107.2723       456.5605
         249      4642.2280       466.8715       107.5424       454.3167
         250      5516.8350       464.7137       107.8080       452.0357
         251      4841.1289       462.5198       108.0671       449.7178
         252      5808.1592       460.2908       108.3200       447.3639
         253      5189.9941       458.0279       108.5675       444.9749
         254      4783.3252       455.7319       108.8087       442.5520
         255      5231.1572       453.4038       109.0433       440.0961
         256      6067.5239       451.0448       109.2730       437.6080
         257      5302.0171       448.6559       109.4971       435.0890
         258      5171.5000       446.2378       109.7154       432.5399
         259      4804.7749       443.7913       109.9263       429.9615
         260      5415.4878       441.3180       110.1331       427.3549
